Temps [s],Tension [V]
0.02,-4.828863
0.1,-2.56133
0.18,0.275628
0.26,3.331205
0.34,6.038517
0.42,5.380119
0.5,2.199981
0.58,-1.014476
0.66,-3.584516
0.75,-5.286437
0.83,-4.916565
0.9,-3.273112
0.99,-1.292834
1.07,1.592424
1.15,4.819591
1.23,5.983862
1.31,3.732853
1.39,0.832343
1.47,-0.902625
1.55,-2.289328
1.63,-3.67476
1.71,-3.487917
1.79,-1.764389
1.88,0.187926
1.96,2.877444
2.04,5.470363
2.12,5.245389
2.2,2.349963
2.28,-0.492079
2.36,-2.453292
2.44,-4.340784
2.52,-3.965828
2.6,-2.486339
2.69,-0.809839
2.77,1.419563
2.85,4.528523
2.93,5.818627
3.01,3.783695
3.09,0.964531
3.17,-1.316983
3.25,-3.119316
3.33,-4.251812
3.41,-4.081492
3.49,-2.163495
3.57,-0.129833
3.65,2.156765
3.73,5.104304
3.81,5.139893
3.89,2.207607
3.97,-0.800942
4.05,-2.797743
4.13,-4.88606
4.22,-5.09451
4.3,-3.254046
4.38,-1.147935
4.46,1.226365
4.54,4.18153
4.62,5.752533
4.7,3.889191
4.79,0.930213
4.87,-1.285207
4.95,-2.684621
5.03,-3.707807
5.11,-3.562909
5.19,-2.08342
5.27,-0.142544
5.35,2.402076
5.43,4.84247
5.51,5.003892
5.59,2.662639
5.67,0.072262
5.75,-2.004615
5.83,-4.441196
5.92,-4.95978
6,-3.166345
6.08,-1.102178
6.16,1.029354
6.24,3.849789
6.32,5.602551
6.4,4.016295
6.48,1.270851
6.56,-1.146664
6.64,-2.857482
6.73,-3.904818
6.81,-3.578161
6.89,-2.327459
6.97,-0.329386
7.05,2.27243
7.13,4.70774
7.21,4.900938
7.3,2.531722
7.38,-0.043403
7.46,-2.124093
7.54,-4.34841
7.62,-5.023332
7.7,-3.350645
7.78,-1.16573
7.86,0.974699
7.94,3.745563
8.02,5.404269
8.1,4.006126
8.18,1.303898
8.26,-0.956008
8.34,-2.682079
8.42,-4.021754
8.5,-4.040819
8.58,-2.6592
8.66,-0.917877
8.74,1.383974
8.82,4.2311
8.91,4.94034
8.99,2.817705
9.07,0.283254
9.15,-1.658893
9.23,-3.745938
9.31,-4.746246
9.4,-3.482833
9.47,-1.330965
9.56,0.757352
9.64,3.43543
9.72,5.266997
9.8,3.97435
9.88,1.396684
9.96,-0.849241
10.04,-2.729107
10.12,-3.859061
10.2,-3.622647
10.28,-2.300767
10.36,-0.78696
10.44,1.898744
10.52,4.253979
10.6,4.880601
10.69,2.8355
10.76,0.421797
10.84,-1.403414
10.92,-3.293448
11.01,-4.443738
11.09,-3.523506
11.17,-1.507639
11.25,0.453573
11.33,2.99438
11.41,4.954321
11.49,4.123062
11.57,1.682668
11.65,-0.605202
11.74,-2.502862
11.82,-3.879397
11.9,-3.537488
11.98,-2.177476
12.06,-0.567071
12.14,1.696649
12.22,4.041715
12.3,4.789086
12.38,2.93337
12.46,0.520939
12.54,-1.262329
12.62,-2.998567
12.7,-4.288672
12.79,-3.518422
12.87,-1.547041
12.95,0.416713
13.03,2.807537
13.11,4.79417
13.19,4.076034
13.27,1.682668
13.35,-0.539108
13.43,-2.425329
13.52,-3.937865
13.6,-3.634087
13.68,-2.191458
13.76,-0.607744
13.84,1.559377
13.92,3.891733
14,4.688674
14.08,3.038866
14.16,0.581948
14.24,-1.214029
14.32,-2.820622
14.4,-4.020482
14.49,-3.369711
14.57,-1.649995
14.65,0.289609
14.73,2.817705
14.81,4.688674
14.89,4.060781
14.97,1.744949
15.06,-0.555631
15.14,-2.485068
15.22,-3.997604
15.3,-3.792967
15.38,-2.308393
15.46,-0.686548
15.54,1.479302
15.62,3.795134
15.7,4.520897
15.78,3.045221
15.86,0.648042
15.94,-1.17844
16.02,-2.712584
16.11,-3.845079
16.19,-3.402758
16.27,-1.770744
16.35,0.129459
16.43,2.488506
16.51,4.491663
16.59,4.12052
16.67,1.938147
16.75,-0.241685
16.83,-2.15714
16.91,-3.906089
16.99,-3.829827
17.07,-2.336356
17.16,-0.7501
17.24,1.329319
17.32,3.581599
17.4,4.480224
17.48,3.046492
17.56,0.712865
17.64,-1.010663
17.72,-2.359235
17.8,-3.423094
17.88,-3.091353
17.96,-1.615677
18.04,0.009981
18.12,2.302935
18.2,4.301007
18.29,4.090015
18.37,2.033474
18.45,-0.086618
18.53,-1.521621
18.61,-3.022717
18.69,-3.191765
18.77,-1.838109
18.85,-0.692903
18.93,1.043335
19.01,3.20283
19.09,4.32897
19.17,3.204101
19.25,1.03698
19.33,-0.790773
19.42,-1.840651
19.5,-2.837146
19.57,-2.621069
19.66,-1.552125
19.74,-0.17432
19.82,2.051269
19.9,4.12052
19.98,4.209493
20.06,2.18727
20.14,0.012523
20.22,-1.341133
20.3,-2.783762
20.39,-3.180326
20.47,-1.891493
20.55,-0.790773
20.63,0.879371
20.71,3.035053
20.79,4.198053
20.87,3.159615
20.95,1.077653
21.03,-0.622996
21.11,-1.713547
21.19,-2.734191
21.28,-2.557517
21.36,-1.510181
21.44,-0.192114
21.52,1.938147
21.6,3.957827
21.68,4.162464
21.76,2.233028
21.84,0.070991
21.92,-1.266142
22,-2.647761
22.09,-3.142195
22.17,-1.932166
22.25,-0.833989
22.33,0.70651
22.41,2.84821
22.49,4.098912
22.57,3.201559
22.65,1.165355
22.73,-0.544192
22.81,-1.576275
22.89,-2.462189
22.97,-2.379572
23.05,-1.433919
23.13,-0.316676
23.21,1.718257
23.3,3.725227
23.38,4.123062
23.46,2.412244
23.53,0.248936
23.62,-1.200048
23.7,-2.478713
23.78,-3.237523
23.86,-2.268991
23.94,-1.061505
24.02,0.52221
24.1,2.691872
24.18,4.027734
24.26,3.26384
24.35,1.295001
24.43,-0.508603
24.51,-1.590257
24.59,-2.453292
24.67,-2.380843
24.75,-1.426293
24.83,-0.337013
24.91,1.629284
25,3.63117
25.08,4.011211
25.16,2.311832
25.24,0.175216
25.32,-1.149206
25.4,-2.374487
25.48,-3.060848
25.57,-2.094859
25.65,-0.888643
25.72,0.581948
25.81,2.721106
25.89,4.037902
25.97,3.26384
26.05,1.349656
26.13,-0.718324
26.21,-2.411348
26.29,-3.501899
26.37,-3.343019
26.45,-2.186374
26.53,-0.539108
26.61,1.508536
26.69,3.432888
26.77,4.036631
26.85,2.580021
26.93,0.289609
27.01,-1.744052
27.09,-3.50317
27.18,-4.525085
27.25,-3.80949
27.34,-2.185103
27.42,0.116748
27.5,2.506301
27.58,3.993416
27.66,3.427804
27.74,1.533956
27.82,-0.371331
27.9,-1.549583
27.98,-2.46346
28.07,-2.356693
28.15,-1.408498
28.23,-0.408191
28.31,1.3433
28.39,3.220625
28.47,3.868854
28.55,2.511385
28.63,0.500602
28.71,-0.88483
28.79,-1.906745
28.87,-2.783762
28.95,-2.296954
29.03,-1.193693
29.11,0.162506
29.19,2.23557
29.28,3.829452
29.36,3.427804
29.44,1.621658
29.52,-0.315405
29.6,-1.492387
29.68,-2.481255
29.76,-2.486339
29.84,-1.59407
29.92,-0.626809
30,1.068756
30.08,2.984211
30.16,3.764629
30.25,2.644844
30.32,0.711594
30.41,-0.752642
30.49,-1.770744
30.57,-2.567685
30.65,-2.261365
30.73,-1.189879
30.81,0.070991
30.89,2.055082
30.97,3.629899
31.05,3.47229
31.13,1.805959
31.21,-0.190843
31.29,-1.436461
31.37,-2.466002
31.45,-2.641406
31.53,-1.749136
31.62,-0.705614
31.7,0.907334
31.78,2.796098
31.86,3.708703
31.94,2.765593
32.02,0.869203
32.1,-0.701801
32.18,-1.639827
32.26,-2.56133
32.34,-2.326188
32.42,-1.370367
32.5,-0.132375
32.58,1.812314
32.67,3.451954
32.75,3.473561
32.83,1.93052
32.91,-0.051029
32.99,-1.234366
33.07,-2.26772
33.15,-2.552433
33.23,-1.722445
33.31,-0.785689
33.39,0.6938
33.47,2.535535
33.55,3.605749
33.63,2.913033
33.71,1.038251
33.79,-0.634436
33.88,-1.609322
33.96,-2.478713
34.04,-2.27916
34.12,-1.404685
34.2,-0.213722
34.28,1.691565
34.36,3.340102
34.45,3.453225
34.52,2.025848
34.61,0.10658
34.69,-1.158104
34.77,-2.140616
34.85,-2.529554
34.93,-1.751679
35.01,-0.821278
35.09,0.599743
35.17,2.474525
35.25,3.490085
35.33,2.888883
35.41,1.062401
35.49,-0.595033
35.58,-1.572462
35.66,-2.357964
35.74,-2.207981
35.82,-1.262329
35.9,-0.22389
35.98,1.57463
36.06,3.23969
36.14,3.455767
36.22,2.055082
36.3,0.212076
36.38,-0.996682
36.46,-1.988092
36.55,-2.425329
36.63,-1.780912
36.7,-0.83526
36.79,0.484078
36.87,2.362673
36.95,3.427804
37.03,2.900323
37.11,1.230178
37.19,-0.514958
37.27,-1.536873
37.35,-2.457105
37.43,-2.453292
37.51,-1.541957
37.59,-0.415817
37.68,1.397955
37.76,3.083352
37.84,3.469748
37.92,2.160578
38,0.297236
38.08,-0.966177
38.17,-1.977923
38.25,-2.391011
38.33,-1.730071
38.41,-0.858138
38.49,0.440863
38.57,2.269888
38.65,3.323579
38.73,2.895239
38.81,1.190776
38.89,-0.46793
38.97,-1.463153
39.05,-2.258823
39.14,-2.178748
39.22,-1.306815
39.3,-0.265834
39.38,1.381432
39.46,2.986753
39.54,3.427804
39.62,2.202523
39.7,0.377311
39.78,-0.882288
39.86,-1.775828
39.94,-2.312207
40.02,-1.732613
40.11,-0.891185
40.19,0.382395
40.27,2.230485
40.35,3.321037
40.43,2.815163
40.51,1.200944
40.59,-0.481911
40.67,-1.426293
40.75,-2.205439
40.83,-2.239757
40.91,-1.454256
40.99,-0.48064
41.08,1.23272
41.16,2.887612
41.24,3.392215
41.31,2.276243
41.4,0.42434
41.48,-0.84797
41.56,-1.759305
41.64,-2.31602
41.72,-1.798707
41.8,-0.940756
41.88,0.20445
41.96,2.010596
42.04,3.183764
42.12,2.893968
42.2,1.427189
42.28,-0.227703
42.36,-1.193693
42.44,-2.013512
42.53,-2.145701
42.61,-1.475863
42.69,-0.534024
42.77,1.006475
42.85,2.719835
42.93,3.354084
43.01,2.365216
43.09,0.524752
43.17,-0.813652
43.25,-1.737697
43.33,-2.36559
43.41,-2.007157
43.49,-1.116159
43.57,0.02142
43.65,1.791977
43.73,3.083352
43.82,2.942267
43.9,1.567003
43.98,-0.10187
44.06,-1.118701
44.14,-1.874969
44.22,-2.055457
44.3,-1.421209
44.38,-0.572155
44.46,0.784043
44.54,2.418599
44.62,3.234606
44.7,2.455459
44.78,0.764978
44.87,-0.650959
44.95,-1.622033
45.03,-2.272804
45.11,-1.994447
45.19,-1.191151
45.27,-0.068823
45.35,1.683939
45.43,3.017258
45.52,2.937183
45.6,1.593695
45.68,-0.048487
45.76,-1.08057
45.84,-1.852091
45.92,-2.102485
46,-1.436461
46.08,-0.600118
46.16,0.720492
46.24,2.351234
46.32,3.144362
46.4,2.473254
46.49,0.726847
46.56,-0.617912
46.65,-1.530518
46.73,-2.25501
46.81,-2.021139
46.89,-1.220384
46.97,-0.184488
47.05,1.597508
47.13,2.928286
47.21,2.995651
47.29,1.710631
47.37,0.018878
47.45,-1.163188
47.53,-2.124093
47.62,-2.398637
47.7,-1.686856
47.78,-0.663669
47.86,0.678547
47.94,2.278785
48.02,3.074455
48.1,2.466899
48.18,0.886998
48.26,-0.502248
48.34,-1.362741
48.42,-2.041475
48.5,-1.911829
48.58,-1.189879
48.66,-0.262021
48.74,1.308982
48.82,2.7872
48.9,2.995651
48.98,1.8568
49.07,0.128188
49.15,-1.009392
49.23,-1.755492
49.31,-2.166037
49.39,-1.66779
49.47,-0.898812
49.55,0.329012
49.63,2.074148
49.71,3.004548
49.8,2.508843
49.88,0.984868
49.96,-0.410733
50.04,-1.281394
50.12,-1.933437
50.2,-1.891493
50.28,-1.201319
50.36,-0.278545
50.44,1.236533
50.52,2.70077
50.6,2.981669
50.68,1.924165
50.76,0.32647
50.84,-0.820007
50.92,-1.604238
51,-2.042746
51.08,-1.641098
51.16,-0.90898
51.25,0.248936
51.33,1.900015
51.41,2.940996
51.49,2.610526
51.57,1.164084
51.65,-0.380228
51.73,-1.275039
51.81,-1.958858
51.89,-1.965213
51.97,-1.333507
52.05,-0.424714
52.13,1.049691
52.21,2.501217
52.29,2.995651
52.38,1.99153
52.46,0.443405
52.54,-0.733577
52.62,-1.477134
52.7,-1.901661
52.78,-1.576275
52.86,-0.919148
52.94,0.157421
53.02,1.788164
53.1,2.857107
53.19,2.613068
53.26,1.246702
53.35,-0.331928
53.43,-1.254702
53.51,-1.943605
53.59,-2.045288
53.67,-1.376722
53.75,-0.486995
53.83,0.921316
53.91,2.442749
53.99,2.980398
54.07,2.105924
54.15,0.508228
54.24,-0.839073
54.32,-2.105027
54.4,-2.750715
54.48,-2.471086
54.56,-1.47205
54.64,-0.02815
54.72,1.668686
54.8,2.783387
54.88,2.637218
54.96,1.339487
55.04,-0.417088
55.12,-2.144429
55.21,-3.147279
55.29,-3.313785
55.37,-2.538451
55.45,-1.044981
55.53,0.750996
55.61,2.34615
55.69,2.954977
55.77,2.146597
55.85,0.505686
55.93,-1.245805
56.01,-2.599461
56.09,-3.220999
56.17,-2.889258
56.25,-1.942334
56.33,-0.24804
56.41,1.505993
56.49,2.670265
56.57,2.675349
56.65,1.525059
56.74,-0.231516
56.82,-1.869885
56.9,-2.833332
56.98,-3.159989
57.06,-2.515573
57.14,-1.198777
57.22,0.550172
57.3,2.185999
57.38,2.929557
57.46,2.238112
57.55,0.561612
57.63,-1.207674
57.71,-2.582938
57.79,-3.293448
57.87,-3.049409
57.95,-1.899119
58.03,-0.361162
58.11,1.458965
58.19,2.629592
58.28,2.634676
58.36,1.448797
58.44,-0.26075
58.52,-1.864801
58.6,-2.904511
58.68,-3.1727
58.76,-2.626153
58.84,-1.224198
58.93,0.607369
59.01,2.213962
59.09,2.868547
59.17,2.130073
59.25,0.538733
59.33,-1.160646
59.41,-2.506675
59.49,-3.156176
59.57,-2.839688
59.65,-1.844464
59.73,-0.310321
59.82,1.45261
59.9,2.604171
59.98,2.616881
60.06,1.493283
